Wavelength [nm];Reflectivity
263.59999;0.006383854
268.59999;0.007298917
273.09999;0.003800796
277.1;0.008422152
281.09998;0.005709881
285.09998;0.006936382
289.09999;0.010694597
293.1;0.009186527
297.10001;0.008581641
301.09999;0.007173506
305.09999;0.015440802
309.1;0.01689982
313.09998;0.017410133
317.09999;0.016511571
321.1;0.017503085
325.1;0.016781511
329.10001;0.017138734
333.09999;0.017073702
337.1;0.021586318
341.09998;0.020300938
345.09999;0.018465798
349.09999;0.018239705
353.1;0.022219654
357.10001;0.022845807
360.60002;0.022342872
363.60002;0.023165492
366.60004;0.023552487
369.60003;0.023138652
372.60002;0.022621987
375.60001;0.021322187
378.6;0.024162497
381.09997;0.022558341
383.09997;0.022996176
385.09998;0.023976415
387.09998;0.024536304
389.09999;0.025545117
391.09999;0.026730631
393.09999;0.027932802
395.1;0.028295208
397.1;0.030177856
399.10001;0.031037703
401.09998;0.032410044
403.09998;0.034014765
405.09999;0.035808664
412.80001;0.042378515
415.80001;0.045211531
418.8;0.04808075
421.80002;0.050697915
424.80004;0.053721
427.80003;0.056443311
430.80002;0.058629274
433.80001;0.06162706
436.80003;0.063918658
439.80002;0.065723315
442.80002;0.068006285
445.80001;0.069875613
448.8;0.073824301
451.3;0.076061524
453.3;0.07721103
455.3;0.07852219
457.30001;0.078861162
459.30001;0.079977043
461.29999;0.081230655
463.29999;0.082942702
465.29999;0.083483957
467.3;0.085029081
469.3;0.085618898
471.29998;0.086652063
473.29998;0.087610081
475.29998;0.089148387
477.29999;0.089611098
479.29999;0.090712786
481.3;0.091215499
483.3;0.092167936
485.3;0.093339443
487.30001;0.094393902
489.30001;0.094603948
491.29999;0.095920496
493.29999;0.096545175
495.29999;0.098369375
497.3;0.099126138
499.3;0.10056981
501.29998;0.10155582
503.30001;0.10290978
505.29999;0.1045887
507.30002;0.10643955
509.29999;0.10761456
511.29997;0.11042362
513.3;0.11282746
515.29998;0.11538893
517.30001;0.11815573
519.29998;0.12133211
521.29996;0.12485645
523.29999;0.1279795
525.29997;0.13161764
527.3;0.13427912
529.29997;0.13690713
531.29995;0.13977739
533.29998;0.14204554
535.29996;0.14406684
537.29999;0.14578581
539.29996;0.14770117
541.3;0.14802529
543.30003;0.14944789
545.30001;0.14969221
547.30004;0.15159974
549.30001;0.15163153
551.29999;0.15326448
553.30002;0.15300684
555.3;0.15421815
557.30003;0.1537196
559.30001;0.15379189
561.29998;0.15451382
563.30001;0.15388384
565.29999;0.15385506
567.30002;0.1520936
569.3;0.15173087
571.29997;0.14992863
573.3;0.14881447
575.29998;0.14823082
577.30001;0.14692791
579.29999;0.14803497
581.29996;0.14656255
583.29999;0.14613371
585.29997;0.14557669
587.3;0.14673659
589.29998;0.1466779
591.30001;0.14613311
593.30004;0.14616033
595.30002;0.14594921
597.30005;0.14576122
599.30003;0.14657155
601.10003;0.1468388
602.7;0.14674495
604.30002;0.14772499
605.89999;0.14695197
607.50008;0.14731081
609.10004;0.14719284
610.70001;0.14647034
612.29998;0.14684074
613.90001;0.14719681
615.50003;0.14698936
617.10006;0.14612332
618.70003;0.14676602
620.29999;0.14753333
621.89996;0.14650221
623.50005;0.14679159
625.10002;0.147687
626.69998;0.14748603
628.30001;0.14854607
629.89998;0.14802718
631.69998;0.14866681
633.70001;0.14904842
635.69999;0.14887959
637.70002;0.14917859
639.7;0.14850874
641.70003;0.14896938
643.70006;0.14839968
645.70004;0.14887938
647.70007;0.14787006
649.70005;0.14840013
651.70002;0.14743021
653.70005;0.14811753
655.70003;0.14852773
657.70006;0.14859554
659.70004;0.14879425
661.70001;0.14820947
663.70004;0.14820252
665.70002;0.14879082
667.70005;0.14791301
670.19999;0.14818209
673.20001;0.14789484
676.19997;0.14893684
679.19999;0.14915965
682.19995;0.15034053
685.19998;0.15200418
688.2;0.15339017
691.20002;0.15840511
694.20004;0.16455474
697.20006;0.1730639
700.19996;0.18486491
701.99996;0.19290289
704;0.20143084
705.99997;0.21142229
708;0.21899596
709.99998;0.22957079
711.99995;0.23908582
713.99999;0.2505551
715.99996;0.26059216
717.99999;0.27314529
719.99997;0.2851612
721.99994;0.29876965
723.99998;0.3121773
725.99995;0.32670826
727.99999;0.34145865
729.99996;0.35739183
731.99993;0.37282521
733.99997;0.38823539
735.99994;0.40376601
737.99998;0.41940299
740.00001;0.43288606
741.99998;0.44727144
744.00002;0.46112022
745.99999;0.47314158
748.00003;0.48342484
750.50002;0.49625963
753.50004;0.50831044
756.50001;0.51848501
759.50003;0.52710229
762.49999;0.53342372
765.50001;0.53761435
768.50003;0.54204023
771.49999;0.54485154
774.50001;0.54838789
777.50003;0.55023754
780.99996;0.55119514
784.99997;0.55267143
788.99997;0.55443448
792.99998;0.55629516
796.99999;0.55756348
801.50002;0.55811954
806.50002;0.56012011
811.50001;0.5606913
816.50001;0.56217194
821.99997;0.56352085
828.00001;0.56324637
851.00001;0.56772172
859.00003;0.56548917
870.99999;0.56508344
883.00002;0.56498069
893.99999;0.56769848
903.99998;0.56650895
913.99997;0.56566167
923.99997;0.56498027
932.99997;0.5635978
940.99998;0.5593552
949;0.55298489
957.00002;0.5447917
963.99999;0.54096186
969.99997;0.54029894
975.99995;0.53974688
981.99993;0.54092187
987.99998;0.5403409
994.00002;0.54225695
1000;0.54516304
1006;0.54640388
1012;0.54766232
1018;0.55227262
1023.5;0.55377567
1028.5;0.55627197
1033.5;0.55842787
1038.5;0.56087625
1043.4999;0.56222188
1048.4999;0.56334889
1053.4999;0.56378329
1058.4999;0.56516761
1063.4999;0.56553632
1068.4999;0.56608045
1073.5;0.56494987
1078.5;0.56629211
1083.5;0.56707442
1088.5;0.56564939
1093.5;0.56544119
1098.5;0.56554073
1103.5;0.56219584
1108.5;0.56361616
1113.5;0.56120747
1118.5;0.56031829
1123.5;0.55772054
1128.5;0.55373663
1133.5;0.54619038
1138.5;0.53570497
1143.5;0.52319908
1148.5;0.51294446
1153.5;0.50481391
1158.5;0.49869794
1163.5;0.49460858
1168.4999;0.4926095
1173.5001;0.48970222
1178.5001;0.48794317
1183.5001;0.48677093
1188.5;0.48675042
1193.5;0.48601311
1198.5;0.48498812
1203.5;0.48535222
1208.5;0.48483881
1213.5;0.48591122
1218.5;0.48880601
1223.5;0.48917279
1228.5;0.49071056
1233.5;0.49213114
1238.5;0.49396554
1243.5;0.49565226
1248.5;0.49726492
1253.5;0.49916735
1258.5;0.50010145
1263.5;0.50059134
1268.5;0.50041169
1273.5001;0.50011092
1278.5001;0.49921426
1283.5001;0.49885592
1288.5001;0.49674225
1293.5001;0.49485344
1298.5001;0.49167952
1303.4999;0.48824111
1308.4999;0.48328152
1313.4999;0.47797251
1318.4999;0.4708162
1323.4999;0.46336269
1328.4999;0.4550541
1333.4999;0.4463706
1338.4999;0.43816647
1343.4999;0.42899641
1348.4999;0.41986594
1353.4999;0.41445246
1358.4999;0.40770045
1363.4999;0.40007886
1368.4999;0.39222509
1373.5;0.38103986
1378.5;0.36717802
1383.5;0.34723732
1388.5;0.32415012
1393.5;0.29858077
1398.5;0.2775403
1403.5;0.25674209
1408.5;0.2401758
1413.5;0.22896238
1418.4999;0.21812411
1423.4999;0.21116319
1428.4999;0.20464082
1433.4999;0.20129916
1438.4999;0.19808507
1443.4999;0.19481128
1448.4999;0.19407769
1453.4999;0.19408982
1458.4999;0.19408929
1463.4999;0.19615565
1468.4999;0.19500464
1473.5;0.19865081
1478.5;0.20129509
1483.5;0.20554528
1488.5;0.20907518
1493.5;0.21359964
1498.5;0.21783929
1503.5;0.22199562
1508.5;0.22627369
1513.5;0.23077936
1518.5;0.23733744
1523.5;0.24139388
1528.5;0.24774496
1533.9999;0.25203222
1540;0.25769815
1546;0.26307076
1551.9999;0.26897746
1558;0.27392441
1563.9999;0.27756411
1570.5;0.28224438
1577.5;0.28700396
1584.5;0.29236358
1591.5;0.29774135
1598.5;0.30241597
1605.5;0.30751938
1612.5;0.31140998
1619.4999;0.31658238
1626.5;0.31943226
1633.5;0.3229425
1640.4999;0.32487592
1647.4999;0.3267585
1654.4999;0.32914132
1661.5;0.32945222
1668.4999;0.33059329
1676.0001;0.32783666
1684;0.32488644
1692;0.32405221
1700;0.32235697
1708.0001;0.32010841
1716.0001;0.31347448
1724;0.31073472
1732;0.30466968
1740;0.30430719
1748;0.30058366
1756;0.29679912
1763.9999;0.29159302
1772.0001;0.28823262
1780.0001;0.28677285
1788.0001;0.28795311
1796.0001;0.28555319
1804.9999;0.28620532
1814.9999;0.28695792
1824.9999;0.28643155
1834.9999;0.28570613
1844.9999;0.28073284
1854.9999;0.26946449
1864.9999;0.24997041
1875;0.2164032
1885;0.18029484
1895;0.14518826
1905;0.12322228
1915;0.10940353
1925;0.10510751
1934.9999;0.10526172
1944.9999;0.10784606
1954.9999;0.11061263
1964.9999;0.11992234
1975;0.12402231
1985;0.12952395
1995;0.13461404
2005.0001;0.13886645
2015.0001;0.14461884
2025.0001;0.14497277
2035.0001;0.14622442
2045.0001;0.145119
2055.0001;0.14734149
2065.0001;0.14759806
2075;0.14997992
2085;0.15366136
2095;0.1536334
2105;0.16018426
2115;0.1639902
2125;0.1680422
2135;0.17022172
2145;0.17623398
2155;0.17648301
2165;0.18178803
2175;0.18334675
2184.9999;0.18401757
2194.9999;0.18701716
2205.0002;0.18809788
2215.0002;0.19014046
2225.0001;0.1893035
2235.0001;0.18442073
2245.0001;0.18124807
2255.0001;0.17183283
2265.0001;0.17157607
2275.0001;0.16449849
2285.0001;0.16095886
2295.0001;0.15713748
2305.0001;0.15000774
2315.0001;0.14758262
2325;0.14363727
2335;0.1404947
2345;0.13625173
2355;0.13310207
2365;0.13338292
2375;0.13092583
2385.9999;0.12632182
2400.0001;0.12193701
2418;0.11386142
2440.0001;0.10401032
2466.0001;0.090932786
2496.0001;0.081555061
2527.9999;0.080716148
2559.9999;0.08366847
2592;0.084318541
2623.9998;0.08304356
2655.9999;0.077018499
2687.9997;0.060903162
2720;0.036635309
2752.0001;0.01257873
2783.9999;0.016371064
2816;0.008141259
2847.9998;0.001550869
2879.9999;0.009622696
2912.0002;0.010313215
2944;0.009274391
2976.0001;0.003116515
