Wavelength [nm];Reflectivity
263.59999;0.006383854
268.59999;0.007298917
273.09999;0.003800796
277.1;0.008422152
281.09998;0.005709881
285.09998;0.006936382
289.09999;0.010694597
293.1;0.009186528
297.10001;0.008581641
301.09999;0.007173506
305.09999;0.013269732
309.1;0.015545517
313.09998;0.016396962
317.09999;0.014930496
321.1;0.016504627
325.1;0.015328044
329.10001;0.015930153
333.09999;0.015872993
337.1;0.019667663
341.09998;0.018605797
345.09999;0.017376596
349.09999;0.01733521
353.1;0.021161899
357.10001;0.021714929
360.60002;0.021316238
363.60002;0.022539331
366.60004;0.022699319
369.60003;0.022952085
372.60002;0.022901459
375.60001;0.022181924
378.6;0.024272833
381.09997;0.0237507
383.09997;0.024350546
385.09998;0.025373444
387.09998;0.026078921
389.09999;0.027477106
391.09999;0.028875057
393.09999;0.03020725
395.1;0.030777108
397.1;0.033108227
399.10001;0.034065641
401.09998;0.035929132
403.09998;0.038065188
405.09999;0.040469661
412.80001;0.049435109
415.80001;0.053263593
418.8;0.057224937
421.80002;0.06105249
424.80004;0.06535989
427.80003;0.069379814
430.80002;0.072454765
433.80001;0.076929346
436.80003;0.080078587
439.80002;0.082966581
442.80002;0.086150244
445.80001;0.088882774
448.8;0.093007647
451.3;0.096299395
453.3;0.097836979
455.3;0.099608645
457.30001;0.10022672
459.30001;0.10172875
461.29999;0.10368486
463.29999;0.1062577
465.29999;0.10713384
467.3;0.10939594
469.3;0.11013697
471.29998;0.1116905
473.29998;0.11331379
475.29998;0.11546036
477.29999;0.11604102
479.29999;0.11779898
481.3;0.11845304
483.3;0.11991858
485.3;0.1216284
487.30001;0.12310364
489.30001;0.12355378
491.29999;0.12540546
493.29999;0.12609248
495.29999;0.12861599
497.3;0.12932335
499.3;0.13132097
501.29998;0.13225736
503.30001;0.13378927
505.29999;0.13570276
507.30002;0.13760792
509.29999;0.1385864
511.29997;0.1414943
513.3;0.14338872
515.29998;0.14595316
517.30001;0.14838266
519.29998;0.1510323
521.29996;0.15382712
523.29999;0.15655906
525.29997;0.15972926
527.3;0.16179499
529.29997;0.16376959
531.29995;0.1666549
533.29998;0.16860151
535.29996;0.17076117
537.29999;0.17245591
539.29996;0.17462382
541.3;0.17496981
543.30003;0.17675866
545.30001;0.17701529
547.30004;0.17937197
549.30001;0.17898801
551.29999;0.18125121
553.30002;0.18111831
555.3;0.18284687
557.30003;0.18252251
559.30001;0.18321708
561.29998;0.18429743
563.30001;0.18442777
565.29999;0.18532045
567.30002;0.1841498
569.3;0.18484828
571.29997;0.18390802
573.3;0.18376395
575.29998;0.18413493
577.30001;0.18344586
579.29999;0.185618
581.29996;0.18411781
583.29999;0.18499477
585.29997;0.18483588
587.3;0.1862742
589.29998;0.18662432
591.30001;0.18696292
593.30004;0.18696168
595.30002;0.18718614
597.30005;0.18710688
599.30003;0.18798059
601.10003;0.18882491
602.7;0.1889371
604.30002;0.1902926
605.89999;0.1897206
607.50008;0.19030814
609.10004;0.19039281
610.70001;0.19004339
612.29998;0.19081087
613.90001;0.19141038
615.50003;0.19190928
617.10006;0.19125377
618.70003;0.19212048
620.29999;0.19340698
621.89996;0.19267723
623.50005;0.19315626
625.10002;0.19453116
626.69998;0.19463941
628.30001;0.1956481
629.89998;0.19547117
631.69998;0.1964134
633.70001;0.19698712
635.69999;0.19708869
637.70002;0.19823256
639.7;0.19769816
641.70003;0.19891098
643.70006;0.19868058
645.70004;0.19959027
647.70007;0.19911654
649.70005;0.20001236
651.70002;0.19921011
653.70005;0.20024201
655.70003;0.20097363
657.70006;0.20138314
659.70004;0.20183794
661.70001;0.2015253
663.70004;0.20186114
665.70002;0.20299175
667.70005;0.20224996
670.19999;0.20273855
673.20001;0.20260346
676.19997;0.20399339
679.19999;0.20466158
682.19995;0.20602563
685.19998;0.20815781
688.2;0.20904765
691.20002;0.2130982
694.20004;0.21729359
697.20006;0.22367343
700.19996;0.23160788
701.99996;0.23750904
704;0.24266417
705.99997;0.25002739
708;0.25497359
709.99998;0.26249737
711.99995;0.26879936
713.99999;0.27708012
715.99996;0.28356776
717.99999;0.29252854
719.99997;0.30046213
721.99994;0.31003755
723.99998;0.31905884
725.99995;0.32910633
727.99999;0.33907431
729.99996;0.35006964
731.99993;0.36019731
733.99997;0.37089697
735.99994;0.38132909
737.99998;0.39210704
740.00001;0.40111175
741.99998;0.41106397
744.00002;0.42036352
745.99999;0.42854539
748.00003;0.43547541
750.50002;0.4440209
753.50004;0.4522523
756.50001;0.45921534
759.50003;0.46534485
762.49999;0.47002879
765.50001;0.47254497
768.50003;0.47586355
771.49999;0.47811833
774.50001;0.48126778
777.50003;0.48241282
780.99996;0.48296881
784.99997;0.48393297
788.99997;0.48561072
792.99998;0.48760763
796.99999;0.48833513
801.50002;0.48850927
806.50002;0.49052739
811.50001;0.49089566
816.50001;0.49221087
821.99997;0.49301687
828.00001;0.49327245
851.00001;0.49763855
859.00003;0.49601373
870.99999;0.49547738
883.00002;0.49649435
893.99999;0.49860406
903.99998;0.49711108
913.99997;0.49638972
923.99997;0.49689499
932.99997;0.49685732
940.99998;0.49372974
949;0.48969412
957.00002;0.48405266
963.99999;0.48119178
969.99997;0.48166966
975.99995;0.4807497
981.99993;0.48150063
987.99998;0.48115063
994.00002;0.48255229
1000;0.48431739
1006;0.48496637
1012;0.48542601
1018;0.48904371
1023.5;0.49045783
1028.5;0.49231997
1033.5;0.49340805
1038.5;0.49613509
1043.4999;0.49630055
1048.4999;0.49731654
1053.4999;0.49796647
1058.4999;0.49859363
1063.4999;0.49899346
1068.4999;0.49928027
1073.5;0.49821219
1078.5;0.49957532
1083.5;0.50110233
1088.5;0.49956116
1093.5;0.49914175
1098.5;0.49977732
1103.5;0.49716052
1108.5;0.49867281
1113.5;0.49708709
1118.5;0.49608451
1123.5;0.49465355
1128.5;0.49178514
1133.5;0.48657617
1138.5;0.47871512
1143.5;0.46975428
1148.5;0.46357226
1153.5;0.45776471
1158.5;0.45289636
1163.5;0.4498716
1168.4999;0.44846588
1173.5001;0.44586331
1178.5001;0.44419122
1183.5001;0.44335088
1188.5;0.44330448
1193.5;0.44280225
1198.5;0.44182539
1203.5;0.44205886
1208.5;0.44124651
1213.5;0.44184762
1218.5;0.44454303
1223.5;0.44451523
1228.5;0.44572371
1233.5;0.44707718
1238.5;0.44824538
1243.5;0.44986147
1248.5;0.45097429
1253.5;0.45290166
1258.5;0.45350701
1263.5;0.4539226
1268.5;0.45376164
1273.5001;0.45337361
1278.5001;0.45317855
1283.5001;0.45316997
1288.5001;0.45190978
1293.5001;0.45033875
1298.5001;0.44828922
1303.4999;0.44635448
1308.4999;0.4426457
1313.4999;0.43948156
1318.4999;0.43450436
1323.4999;0.42914629
1328.4999;0.42354995
1333.4999;0.41706595
1338.4999;0.41162723
1343.4999;0.4045271
1348.4999;0.39721221
1353.4999;0.3931967
1358.4999;0.3877328
1363.4999;0.38205495
1368.4999;0.3764939
1373.5;0.36849225
1378.5;0.3582854
1383.5;0.34523234
1388.5;0.32862562
1393.5;0.30961707
1398.5;0.29516652
1403.5;0.27875057
1408.5;0.26586553
1413.5;0.25515968
1418.4999;0.24470365
1423.4999;0.23780641
1428.4999;0.2309598
1433.4999;0.22767517
1438.4999;0.22407949
1443.4999;0.22131708
1448.4999;0.22023587
1453.4999;0.220382
1458.4999;0.21979323
1463.4999;0.22195038
1468.4999;0.2198997
1473.5;0.2225773
1478.5;0.22453448
1483.5;0.22796564
1488.5;0.23055752
1493.5;0.2338175
1498.5;0.23727062
1503.5;0.24048606
1508.5;0.24333343
1513.5;0.24675052
1518.5;0.25196245
1523.5;0.25459027
1528.5;0.25957921
1533.9999;0.26245642
1540;0.26731724
1546;0.27082574
1551.9999;0.27507347
1558;0.2791523
1563.9999;0.28097284
1570.5;0.28413001
1577.5;0.287525
1584.5;0.2917096
1591.5;0.29587513
1598.5;0.29957101
1605.5;0.30426818
1612.5;0.30719757
1619.4999;0.31144601
1626.5;0.31400728
1633.5;0.31692767
1640.4999;0.31861451
1647.4999;0.31978518
1654.4999;0.32170737
1661.5;0.3213546
1668.4999;0.32225412
1676.0001;0.31898305
1684;0.31612989
1692;0.31579009
1700;0.31451279
1708.0001;0.31262583
1716.0001;0.30564567
1724;0.30404899
1732;0.29915625
1740;0.29957229
1748;0.29789215
1756;0.29588321
1763.9999;0.29107577
1772.0001;0.28916281
1780.0001;0.28779572
1788.0001;0.2901203
1796.0001;0.28731319
1804.9999;0.28830662
1814.9999;0.2891646
1824.9999;0.28830302
1834.9999;0.28879684
1844.9999;0.28648427
1854.9999;0.27930483
1864.9999;0.26574641
1875;0.24119703
1885;0.21341124
1895;0.18117507
1905;0.15791476
1915;0.14206716
1925;0.13623479
1934.9999;0.13696431
1944.9999;0.14082108
1954.9999;0.14431994
1964.9999;0.15448484
1975;0.1595681
1985;0.16458625
1995;0.17074946
2005.0001;0.17377904
2015.0001;0.17840894
2025.0001;0.17671341
2035.0001;0.17606536
2045.0001;0.17201217
2055.0001;0.17097388
2065.0001;0.16869527
2075;0.16908036
2085;0.17163017
2095;0.16855872
2105;0.17423929
2115;0.17688462
2125;0.18037221
2135;0.18319818
2145;0.18816724
2155;0.18814808
2165;0.19366196
2175;0.19567879
2184.9999;0.19583999
2194.9999;0.19806072
2205.0002;0.19957069
2215.0002;0.20156837
2225.0001;0.2001867
2235.0001;0.19473776
2245.0001;0.18967511
2255.0001;0.1808224
2265.0001;0.17925657
2275.0001;0.17289227
2285.0001;0.17054361
2295.0001;0.1687285
2305.0001;0.16159855
2315.0001;0.15927669
2325;0.15602861
2335;0.15370198
2345;0.14984757
2355;0.14774948
2365;0.14929083
2375;0.14784661
2385.9999;0.14401469
2400.0001;0.14102043
2418;0.1330134
2440.0001;0.12275442
2466.0001;0.10885127
2496.0001;0.099279217
2527.9999;0.099958047
2559.9999;0.10354718
2592;0.10635965
2623.9998;0.10758176
2655.9999;0.10064777
2687.9997;0.084161177
2720;0.052053552
2752.0001;0.018190814
2783.9999;0.014697659
2816;0.011270722
2847.9998;0.004720168
2879.9999;0.010475035
2912.0002;0.00867921
2944;0.007740124
2976.0001;0.00294842
