Wavelength [nm];Reflectivity
400;1.0604
401;1.3251
402;1.4971
403;1.4966
404;1.4964
405;1.4966
406;1.627
407;1.6264
408;1.9662
409;2.0937
410;1.961
411;2.0937
412;2.0966
413;2.2674
414;2.3927
415;2.3896
416;2.4318
417;2.4318
418;2.4411
419;2.6228
420;2.6309
421;2.7585
422;3.0993
423;3.3435
424;3.5095
425;3.459
426;3.4547
427;3.6257
428;3.7556
429;3.7753
430;4.0709
431;4.0571
432;4.2321
433;4.3654
434;4.3592
435;4.5449
436;4.7784
437;4.7646
438;4.7509
439;5.0693
440;5.2178
441;5.327
442;4.9949
443;5.319
444;5.493
445;5.4846
446;5.4635
447;5.7609
448;5.7924
449;5.7879
450;6.1678
451;6.1581
452;6.1436
453;6.1533
454;5.8835
455;5.8788
456;6.4646
457;6.4803
458;6.6275
459;6.4332
460;6.3881
461;6.4129
462;6.3564
463;6.5516
464;6.5406
465;6.6923
466;6.6866
467;6.6753
468;6.5132
469;6.6753
470;6.6696
471;6.6753
472;6.9357
473;7.075
474;7.0572
475;6.9357
476;7.2071
477;7.1949
478;7.3157
479;7.6247
480;7.7781
481;7.7781
482;7.7448
483;7.8782
484;7.885
485;8.0906
486;7.8314
487;8.236
488;8.229
489;8.2238
490;8.474
491;8.3083
492;8.4597
493;8.6362
494;9.1099
495;9.0945
496;9.1672
497;9.0454
498;9.1827
499;9.1416
500;9.1416
501;9.2757
502;9.3944
503;9.3327
504;9.592
505;9.5685
506;9.7905
507;9.8598
508;10.0018
509;10.0018
510;10.3284
511;10.5895
512;10.5548
513;10.5117
514;10.646
515;10.7246
516;10.8332
517;10.9862
518;10.9088
519;10.9088
520;11.3564
521;11.4366
522;11.3767
523;11.3676
524;11.4703
525;11.5863
526;11.8647
527;11.9616
528;11.8271
529;11.9521
530;12.0962
531;12.1154
532;12.2601
533;12.464
534;12.6863
535;12.7521
536;12.7421
537;12.782
538;12.8875
539;13.0435
540;13.0741
541;13.2743
542;13.2847
543;13.4311
544;13.515
545;13.5775
546;13.5671
547;13.7236
548;13.974
549;13.9206
550;13.9387
551;13.9883
552;14.048
553;14.2833
554;14.4171
555;14.5402
556;14.7072
557;14.8416
558;14.875
559;14.9048
560;14.963
561;15.0208
562;15.4188
563;15.1925
564;15.4971
565;15.8743
566;15.5699
567;15.8986
568;15.8743
569;15.6249
570;15.7266
571;15.7807
572;15.8399
573;16.2844
574;16.1902
575;16.2076
576;16.258
577;16.0329
578;16.3608
579;16.5785
580;16.903
581;16.6971
582;16.7749
583;16.7227
584;16.8005
585;17.3282
586;17.2256
587;17.2614
588;17.1888
589;17.1494
590;17.1233
591;17.1756
592;17.1625
593;17.0842
594;17.2897
595;17.627
596;17.5377
597;17.7768
598;17.4941
599;17.3889
600;17.7214
601;17.7409
602;17.6955
603;17.6433
604;17.5785
605;17.9627
606;18.074
607;18.074
608;18.0257
609;18.0521
610;18.177
611;18.5575
612;18.2839
613;18.2839
614;18.2839
615;18.562
616;18.7839
617;19.1024
618;18.9193
619;18.9753
620;18.9753
621;18.9333
622;18.6467
623;18.8975
624;18.8837
625;19.1838
626;18.8975
627;19.4234
628;19.4522
629;19.0646
630;19.1903
631;19.5884
632;19.2878
633;19.883
634;19.8976
635;20.0381
636;20.0972
637;19.8369
638;19.7935
639;19.7611
640;19.6471
641;19.6046
642;19.8004
643;19.9684
644;19.954
645;20.1315
646;20.1605
647;20.2853
648;20.6418
649;20.4836
650;20.6719
651;20.3731
652;20.3731
653;20.3731
654;20.4025
655;20.4247
656;20.5054
657;20.3808
658;20.4229
659;20.8892
660;21.0599
661;21.2466
662;21.0448
663;20.9379
664;21.078
665;21.004
666;20.8845
667;21.0534
668;20.8696
669;21.0129
670;21.5352
671;21.6272
672;21.7044
673;21.6901
674;21.6747
675;21.5828
676;21.6287
677;21.7211
678;21.9232
679;21.8921
680;22.0163
681;21.924
682;21.8921
683;22.3455
684;22.3455
685;22.4227
686;22.4997
687;22.3728
688;22.3571
689;22.3256
690;22.3413
691;22.5605
692;22.6564
693;22.5157
694;22.4679
695;22.3706
696;22.2493
697;22.7824
698;22.7246
699;22.7337
700;22.9137
701;23.0197
702;23.0089
703;22.8555
704;22.8241
705;22.93
706;22.993
707;23.3117
708;23.3117
709;23.3691
710;23.2847
711;23.0883
712;23.5289
713;23.4483
714;23.4323
715;23.4576
716;23.5627
717;23.5466
718;23.7323
719;23.6011
720;23.7647
721;23.9098
722;23.8936
723;23.8936
724;23.9098
725;24.0636
726;24.1128
727;24.1292
728;24.1918
729;24.2639
730;24.2787
731;24.3116
732;24.3581
733;24.1496
734;24.2951
735;24.4237
736;24.4237
737;24.5775
738;24.6653
739;24.6653
740;24.8027
741;24.7317
742;24.8027
743;24.8528
744;25.0276
745;24.8938
746;24.8439
747;24.8938
748;24.9271
749;24.6534
750;24.8771
751;24.9772
752;25.2184
753;25.2015
754;25.1433
755;25.3746
756;25.4424
757;25.3746
758;25.0101
759;25.1299
760;25.3694
761;25.5398
762;25.6089
763;25.5751
764;25.4892
765;25.4723
766;25.5582
767;25.3753
768;25.5582
769;25.8998
770;26.0364
771;26.0022
772;26.0359
773;26.0188
774;26.1216
775;26.1905
776;26.1905
777;26.0708
778;25.9851
779;26.0022
780;26.1216
781;26.2583
782;26.1893
783;26.241
784;26.3604
785;26.2224
786;26.3085
787;26.2457
788;26.1946
789;26.1268
790;26.2794
791;26.3306
792;26.3477
793;26.6487
794;26.4496
795;26.2961
796;25.9693
797;26.2624
798;26.0583
799;26.064
800;26.5396
804;26.1513
808;26.6537
812;27.0131
816;26.9801
820;27.2095
824;27.3533
828;27.4398
832;27.303
836;27.3701
840;27.3726
844;27.5599
848;27.6982
852;27.548
856;27.5675
860;27.7559
864;27.9379
868;27.9396
872;28.008
876;28.0807
880;28.3502
884;28.468
888;28.3461
892;28.6642
896;28.6441
900;28.7815
904;28.9817
908;29.2331
912;29.0106
916;29.2123
920;29.3938
924;29.3096
928;29.4262
932;29.778
936;29.7587
940;29.8109
944;30.0507
948;30.0155
952;30.1502
956;30.3134
960;30.1325
964;30.2937
968;30.6821
972;30.5199
976;30.6638
980;30.6911
984;30.5387
988;31.011
992;31.2701
996;31.3859
1000;31.3787
1004;31.6908
1008;31.6175
1012;31.8124
1016;32.1589
1020;32.0119
1024;32.2422
1028;32.3945
1032;31.9465
1036;32.1132
1040;32.3176
1044;32.8913
1048;33.1814
1052;33.1445
1056;33.031
1060;32.5535
1064;33.0105
1068;33.2406
1072;33.6245
1076;33.1066
1080;33.2613
1084;33.7943
1088;33.6627
1092;33.5857
1096;33.8331
1100;34.3492
1104;34.3126
1108;34.1925
1112;34.2482
1116;34.5514
1120;34.4767
1124;34.382
1128;34.3428
1132;34.3913
1136;34.5786
1140;34.7945
1144;34.7354
1148;34.9466
1152;34.5662
1156;34.793
1160;34.8597
1164;34.8156
1168;34.8872
1172;35.1077
1176;35.6867
1180;35.8769
1184;35.8968
1188;35.9368
1192;36.017
1196;36.0572
1200;35.9859
1204;35.9477
1208;35.9881
1212;36.6064
1216;37.0479
1220;37.0955
1224;36.8571
1228;36.4021
1232;36.3204
1236;36.2728
1240;36.3235
1244;36.6178
1248;36.7089
1252;37.2096
1256;37.3299
1260;37.5132
1264;37.5406
1268;37.498
1272;37.498
1276;37.8116
1280;37.8641
1284;37.84
1288;37.8922
1292;37.6541
1296;37.9907
1300;37.9486
1304;37.9066
1308;38.1153
1312;38.2249
1316;38.2249
1320;38.292
1324;38.3132
1328;38.1721
1332;38.0712
1336;38.2842
1340;38.042
1344;38.2665
1348;38.3684
1352;38.1687
1356;38.4965
1360;38.3322
1364;38.4318
1368;38.5262
1372;38.2418
1376;38.2404
1380;38.4193
1384;38.4091
1388;38.1851
1392;38.1293
1396;38.0047
1400;38.0047
1404;38.1365
1408;37.4212
1412;37.4994
1416;37.8142
1420;37.9474
1424;38.1816
1428;38.1995
1432;38.1019
1436;38.2842
1440;38.3933
1444;38.4624
1448;38.4252
1452;38.6877
1456;38.8149
1460;38.7032
1464;38.744
1468;38.7013
1472;38.8529
1476;38.8529
1480;39.1677
1484;39.3201
1488;39.429
1492;39.4728
1496;39.5166
1500;39.506
1504;39.5696
1508;39.5906
1512;39.5266
1516;39.5266
1520;39.207
1524;39.3411
1528;39.6609
1532;40.2177
1536;40.0092
1540;39.7459
1544;39.8106
1548;39.8754
1552;40.0601
1556;40.1886
1560;40.2808
1564;40.2154
1568;40.0653
1572;40.1501
1576;40.2565
1580;40.2372
1584;40.0653
1588;40.1088
1592;40.2372
1596;40.2348
1600;40.1046
1604;40.1263
1608;40.1674
1612;40.1954
1616;40.1457
1620;40.5791
1624;40.4228
1628;40.426
1632;40.6633
1636;40.8135
1640;40.7694
1644;40.719
1648;40.4822
1652;40.5693
1656;40.741
1660;40.7654
1664;40.4822
1668;40.5226
1672;40.7176
1676;40.883
1680;40.8173
1684;40.7299
1688;40.8749
1692;40.9581
1696;40.7622
1700;40.9889
1704;40.9497
1708;40.9714
1712;40.8056
1716;41.0062
1720;41.0813
1724;41.0704
1728;41.0813
1732;40.9666
1736;41.0953
1740;41.0246
1744;40.9634
1748;41.0513
1752;41.4066
1756;41.2846
1760;41.1223
1764;41.1395
1768;41.0073
1772;41.0246
1776;41.1243
1780;41.2953
1784;41.2025
1788;41.1587
1792;41.1806
1796;41.268
1800;41.334
1804;41.1587
1808;41.2463
1812;41.4223
1816;41.4171
1820;41.3285
1824;41.4166
1828;41.5168
1832;41.4117
1836;41.4566
1840;41.4957
1844;41.4228
1848;41.4501
1852;41.2632
1856;41.3505
1860;41.5109
1864;41.6676
1868;41.1695
1872;40.9064
1876;40.7394
1880;40.5759
1884;40.0707
1888;40.1614
1892;39.5804
1896;38.8631
1900;38.3081
1904;37.7465
1908;37.9487
1912;37.6564
1916;37.5492
1920;37.6318
1924;37.7428
1928;37.9425
1932;37.9487
1936;38.0424
1940;38.5389
1944;38.5325
1948;38.512
1952;38.6787
1956;38.6582
1960;38.6798
1964;38.6605
1968;38.8023
1972;39.0495
1976;39.3002
1980;39.3997
1984;39.4611
1988;39.6458
1992;39.8302
1996;39.9564
2000;40.0591
2004;40.2826
2008;40.385
2012;40.4241
2016;40.3578
2020;40.3935
2024;40.3935
2028;40.4563
2032;40.5144
2036;40.5718
2040;40.5509
2044;40.5335
2048;40.9375
2052;40.8532
2056;40.7273
2060;40.8702
2064;41.1097
2068;40.9465
2072;40.7654
2076;41.1097
2079.5;41.0841
2080.3;41.1171
2081.2;41.2736
2082;41.1056
2082.8;41.0033
2083.7;41.1693
2084.5;41.255
2085.3;41.1
2086.2;40.9345
2087;40.953
2087.9;40.9674
2088.7;40.9601
2089.5;41.0192
2090.4;41.2416
2091.2;41.2401
2092.1;41.133
2092.9;41.1635
2093.8;41.2665
2094.6;41.1477
2095.5;41.0192
2096.3;41.0656
2097.1;41.0797
2098;41.2416
2098.8;41.3129
2099.7;41.1679
2100.5;41.1549
2101.4;41.1549
2102.3;41.1508
2103.1;41.1608
2104;41.2042
2104.8;41.2621
2105.7;41.2592
2106.5;41.0985
2107.4;40.963
2108.2;41.0463
2109.1;41.0826
2110;41.1085
2110.8;41.1344
2111.7;41.1315
2112.5;41.2127
2113.4;41.3244
2114.3;41.298
2115.1;41.3577
2116;41.3114
2116.8;41.2072
2117.7;41.0656
2118.6;40.9689
2119.4;41.0785
2120.3;41.2794
2121.2;41.3214
2122;41.3214
2122.9;41.298
2123.8;41.0797
2124.7;41.0376
2125.5;41.2516
2126.4;41.1981
2127.3;41.0871
2128.1;41.0551
2129;41.0062
2129.9;40.9975
2130.8;41.0476
2131.6;41.12
2132.5;41.1273
2133.4;41.0785
2134.3;41.1144
2135.2;41.1535
2136;41.0756
2136.9;41.0871
2137.8;41.1852
2138.7;41.1
2139.6;41.0856
2140.4;41.1622
2141.3;41.1344
2142.2;41.1377
2143.1;41.12
2144;40.9818
2144.9;41.0363
2145.8;41.0233
2146.6;40.8913
2147.5;40.963
2148.4;41.0597
2149.3;41.0741
2150.2;40.9704
2151.1;40.8324
2152;40.9215
2152.9;41.0871
2153.8;41.12
2154.7;40.9948
2155.6;40.8926
2156.5;40.9459
2157.4;40.9415
2158.3;41.0376
2159.2;41.0507
2160.1;40.9086
2161;40.5692
2161.9;40.4425
2162.8;40.652
2163.7;40.8277
2164.6;40.7894
2165.5;40.5961
2166.4;40.6608
2167.3;40.7118
2168.2;40.5607
2169.1;40.306
2170;40.3856
2170.9;40.6608
2171.8;40.8263
2172.7;40.5548
2173.6;40.475
2174.6;40.6161
2175.5;40.7665
2176.4;40.5434
2177.3;40.4071
2178.2;40.5094
2179.1;40.5932
2180;40.495
2181;40.3146
2181.9;40.3234
2182.8;40.3009
2183.7;40.2765
2184.6;40.3688
2185.6;40.4171
2186.5;40.3768
2187.4;40.2936
2188.3;40.3161
2189.3;40.3248
2190.2;40.2792
2191.1;40.2851
2192;40.2792
2193;40.1974
2193.9;40.2313
2194.8;40.1918
2195.7;40.2382
2196.7;40.2667
2197.6;40.1903
2198.5;40.0309
2199.5;39.9676
2200.4;40.0731
2201.3;40.0998
2202.3;40.0099
2203.2;39.9989
2204.1;40.0707
2205.1;40.1466
2206;40.0846
2207;40.0099
2207.9;39.9047
2208.8;39.9791
2209.8;39.9945
2210.7;40.0677
2211.7;40.1759
2212.6;40.2894
2213.6;40.3119
2214.5;40.3529
2215.5;40.485
2216.4;40.5802
2217.3;40.5248
2218.3;40.35
2219.2;40.3644
2220.2;40.6745
2221.1;40.6889
2222.1;40.5831
2223.1;40.629
2224;40.7392
2225;40.6549
2225.9;40.7206
2226.9;40.7936
2227.8;40.7794
2228.8;40.7147
2229.7;40.6774
2230.7;40.7606
2231.7;40.8009
2232.6;40.7909
2233.6;40.831
2234.5;40.7462
2235.5;40.8324
2236.5;40.7521
2237.4;40.5961
2238.4;40.6491
2239.4;40.6334
2240.3;40.6491
2241.3;40.7291
2242.3;40.7421
2243.3;40.7706
2244.2;40.6644
2245.2;40.5722
2246.2;40.5109
2247.1;40.6391
2248.1;40.7492
2249.1;40.6205
2250.1;40.6464
2251;40.6161
2252;40.4694
2253;40.4794
2254;40.518
2255;40.5751
2255.9;40.5333
2256.9;40.4809
2257.9;40.5407
2258.9;40.4923
2259.9;40.3856
2260.9;40.4965
2261.8;40.6933
2262.8;40.622
2263.8;40.421
2264.8;40.4223
2265.8;40.4909
2266.8;40.4267
2267.8;40.3358
2268.8;40.4086
2269.8;40.3956
2270.8;40.3826
2271.8;40.4157
2272.8;40.4835
2273.8;40.508
2274.7;40.4794
2275.7;40.3768
2276.7;40.2553
2277.7;40.3414
2278.7;40.4267
2279.8;40.3161
2280.8;40.3248
2281.8;40.3473
2282.8;40.3688
2283.8;40.3349
2284.8;40.254
2285.8;40.306
2286.8;40.3488
2287.8;40.2582
2288.8;40.2807
2289.8;40.3161
2290.8;40.2084
2291.8;40.1266
2292.9;40.1818
2293.9;40.2367
2294.9;40.3205
2295.9;40.2655
2296.9;40.2069
2297.9;40.1845
2299;40.1564
2300;40.1818
2301;40.2127
2302;40.1466
2303;40.1112
2304.1;40.0975
2305.1;40.017
2306.1;39.9213
2307.1;39.9396
2308.2;39.9581
2309.2;39.9845
2310.2;39.9801
2311.3;39.954
2312.3;39.9606
2313.3;39.8937
2314.4;39.9213
2315.4;40.0294
2316.4;40.0155
2317.5;40.028
2318.5;39.9676
2319.5;39.8415
2320.6;39.9018
2321.6;40.0243
2322.6;40.0758
2323.7;40.0324
2324.7;39.9765
2325.8;39.8937
2326.8;39.9061
2327.9;39.8893
2328.9;39.7956
2330;39.8739
2331;39.9481
2332.1;39.7772
2333.1;39.6222
2334.2;39.7716
2335.2;39.9118
2336.3;39.7636
2337.3;39.7731
2338.4;39.7772
2339.4;39.6126
2340.5;39.5863
2341.5;39.6811
2342.6;39.7299
2343.6;39.6461
2344.7;39.6586
2345.8;39.6769
2346.8;39.5988
2347.9;39.5609
2349;39.4835
2350;39.5499
2351.1;39.6112
2352.2;39.5543
2353.2;39.6071
2354.3;39.5363
2355.4;39.5031
2356.4;39.5624
2357.5;39.5055
2358.6;39.4865
2359.7;39.4352
2360.7;39.349
2361.8;39.4516
2362.9;39.4652
2364;39.4281
2365;39.4931
2366.1;39.5573
2367.2;39.525
2368.3;39.5155
2369.4;39.4865
2370.4;39.4821
2371.5;39.5004
2372.6;39.5499
2373.7;39.4945
2374.8;39.341
2375.9;39.3877
2377;39.4652
2378.1;39.4586
2379.1;39.4945
2380.2;39.4223
2381.3;39.3659
2382.4;39.3007
2383.5;39.2802
2384.6;39.2676
2385.7;39.1586
2386.8;39.1754
2387.9;39.2289
2389;39.2179
2390.1;39.2165
2391.2;39.2179
2392.3;39.2676
2393.4;39.2743
2394.5;39.1586
2395.6;39.0529
2396.7;39.1247
2397.9;39.1989
2399;39.2055
2400.1;39.1811
2401.2;39.1535
2402.3;39.1535
2403.4;39.0954
2404.5;38.9542
2405.6;38.9313
2406.8;39.0819
2407.9;39.2399
2409;39.2494
2410.1;39.0807
2411.2;38.9735
2412.4;39.0241
2413.5;38.9572
2414.6;38.8561
2415.7;38.7782
2416.9;38.7863
2418;38.8888
2419.1;38.8644
2420.2;38.8998
2421.4;38.9323
2422.5;38.8202
2423.6;38.7825
2424.8;38.7702
2425.9;38.7045
2427;38.706
2428.2;38.7318
2429.3;38.6203
2430.5;38.4484
2431.6;38.404
2432.7;38.4716
2433.9;38.4876
2435;38.4364
2436.2;38.4269
2437.3;38.4379
2438.5;38.2907
2439.6;38.2086
2440.8;38.1269
2441.9;38.1781
2443.1;38.2318
2444.2;38.1647
2445.4;38.1967
2446.5;38.257
2447.7;38.2235
2448.8;38.1657
2450;38.1737
2451.1;38.1083
2452.3;38.0255
2453.5;37.9718
2454.6;37.9308
2455.8;37.9308
2456.9;38.0067
2458.1;38.0546
2459.3;37.9972
2460.4;37.9198
2461.6;37.8626
2462.8;37.9105
2464;37.9
2465.1;37.8561
2466.3;37.8761
2467.5;37.7191
2468.6;37.6637
2469.8;37.7124
2471;37.6862
2472.2;37.7169
2473.4;37.755
2474.5;37.6293
2475.7;37.5646
2476.9;37.6254
2478.1;37.6547
2479.3;37.546
2480.5;37.4115
2481.6;37.4669
2482.8;37.5211
2484;37.5076
2485.2;37.5525
2486.4;37.4408
2487.6;37.3461
2488.8;37.3512
2490;37.3119
2491.2;37.2504
2492.4;37.3581
2493.6;37.4315
2494.8;37.2494
2496;37.1626
2497.2;37.2963
2498.4;37.3092
2499.6;37.2599
2500.8;37.2389
2502;37.1249
2503.2;37.0325
2504.4;36.9765
2505.6;36.9933
2506.8;37.0287
2508.1;37.0441
2509.3;37.0546
2510.5;37.0726
2511.7;37.1044
2512.9;37.1459
2514.1;37.09
2515.4;37.0014
2516.6;36.9638
2517.8;36.9425
2519;36.9091
2520.2;37.0127
2521.5;36.9882
2522.7;36.9015
2523.9;36.944
2525.2;37.0158
2526.4;37.0168
2527.6;36.9106
2528.9;36.9075
2530.1;37.0023
2531.3;36.9689
2532.6;36.8832
2533.8;36.8537
2535;36.8234
2536.3;36.786
2537.5;36.8947
2538.8;36.8468
2540;36.737
2541.3;36.7152
2542.5;36.5722
2543.7;36.5697
2545;36.7011
2546.2;36.6364
2547.5;36.589
2548.7;36.6689
2550;36.5929
2551.3;36.5456
2552.5;36.5211
2553.8;36.6173
2555;36.8158
2556.3;36.7885
2557.5;36.745
2558.8;36.6095
2560.1;36.1515
2561.3;35.7716
2562.6;35.7865
2563.9;35.9645
2565.1;36.3377
2566.4;36.6105
2567.7;36.4594
2569;36.0541
2570.2;36.1264
2571.5;36.2819
2572.8;35.8483
2574.1;35.9845
2575.3;36.1898
2576.6;36.0631
2577.9;36.3517
2579.2;36.3468
2580.5;35.9215
2581.7;35.8861
2583;35.5487
2584.3;35.6186
2585.6;35.9476
2586.9;35.7123
2588.2;35.8498
2589.5;36.0048
2590.8;36.1823
2592.1;35.9655
2593.4;34.9442
2594.7;33.9911
2596;34.8471
2597.3;35.8659
2598.6;36.2257
2599.9;36.0324
2601.2;35.7587
2602.5;35.6474
2603.8;35.3593
2605.1;34.873
2606.4;35.1275
2607.7;35.4091
2609;35.4127
2610.3;35.5597
2611.7;35.7253
2613;35.6424
2614.3;35.5673
2615.6;35.0846
2616.9;34.7362
2618.3;35.0045
2619.6;34.7387
2620.9;34.8573
2622.2;35.4152
2623.6;35.5761
2624.9;35.3405
2626.2;34.7543
2627.5;34.8534
2628.9;34.6337
2630.2;34.1601
2631.5;34.5959
2632.9;34.7802
2634.2;34.7127
2635.6;34.9247
2636.9;34.9874
2638.2;34.8854
2639.6;34.7912
2640.9;34.6801
2642.3;34.6212
2643.6;34.5353
2645;34.1242
2646.3;34.0939
2647.7;34.2572
2649;34.1711
2650.4;33.8898
2651.7;33.5331
2653.1;33.5121
2654.5;33.4543
2655.8;33.2211
2657.2;33.3022
2658.5;32.9827
2659.9;32.6088
2661.3;32.5033
2662.6;32.3632
2664;31.5258
2665.4;30.7931
2666.7;30.6908
2668.1;30.8378
2669.5;29.9955
2670.9;29.8002
2672.2;30.3832
2673.6;30.2199
2675;29.5419
2676.4;28.7724
2677.8;28.4189
2679.1;28.048
2680.5;27.882
2681.9;27.3542
2683.3;26.4196
2684.7;25.5588
2686.1;24.7265
2687.5;23.8012
2688.9;22.6459
2690.3;21.2961
2691.7;19.81
2693.1;18.1677
2694.5;16.7541
2695.9;15.5046
2697.3;14.2797
2698.7;13.0864
2700.1;11.9555
2701.5;10.9057
2702.9;10.2654
2704.3;10.0085
2705.7;10.0366
2707.1;10.1985
2708.5;10.4458
2710;10.6491
2711.4;10.8535
2712.8;11.0517
2714.2;11.0293
2715.6;10.9009
2717.1;10.6372
2718.5;10.2697
2719.9;9.7807
2721.3;9.4941
2722.8;9.2698
2724.2;8.9189
2725.6;8.8037
2727.1;8.6601
2728.5;8.4409
2729.9;8.3017
2731.4;8.1074
2732.8;7.8713
2734.3;7.6189
2735.7;7.467
2737.1;7.3574
2738.6;7.1091
2740;6.9436
2741.5;6.938
2742.9;6.9765
2744.4;6.9236
2745.8;6.821
2747.3;6.7842
2748.8;6.7063
2750.2;6.5671
2751.7;6.3645
2753.1;6.1833
2754.6;5.9551
2756.1;5.8479
2757.5;5.8469
2759;5.7683
2760.5;5.5439
2761.9;5.4328
2763.4;5.6819
2764.9;6.0373
2766.4;6.2095
2767.8;6.332
2769.3;6.4695
2770.8;6.5493
2772.3;6.6416
2773.8;6.7197
2775.2;6.7192
2776.7;6.7532
2778.2;6.8364
2779.7;6.8288
2781.2;6.8196
2782.7;6.8169
2784.2;6.8359
2785.7;6.8164
2787.2;6.7995
2788.7;6.8191
2790.2;6.8642
2791.7;6.8574
2793.2;6.8418
2794.7;6.8364
2796.2;6.7939
2797.7;6.7546
2799.2;6.7336
2800.7;6.6535
2802.2;6.5652
2803.8;6.5693
2805.3;6.5972
2806.8;6.5798
2808.3;6.5373
2809.8;6.5403
2811.4;6.468
2812.9;6.3909
2814.4;6.3618
2815.9;6.334
2817.5;6.2556
2819;6.177
2820.5;6.1272
2822.1;6.0578
2823.6;6.0149
2825.2;6.0066
2826.7;5.9326
2828.2;5.8249
2829.8;5.7273
2831.3;5.6362
2832.9;5.5908
2834.4;5.5723
2836;5.5378
2837.5;5.564
2839.1;5.5659
2840.6;5.5903
2842.2;5.5989
2843.7;5.6101
2845.3;5.6592
2846.9;5.6711
2848.4;5.6372
2850;5.644
2851.6;5.6348
2853.1;5.5937
2854.7;5.5942
2856.3;5.5998
2857.9;5.5559
2859.4;5.4995
2861;5.5134
2862.6;5.4861
2864.2;5.3984
2865.8;5.3779
2867.3;5.396
2868.9;5.3726
2870.5;5.3076
2872.1;5.2573
2873.7;5.2617
2875.3;5.2348
2876.9;5.1186
2878.5;5.0588
2880.1;5.0076
2881.7;4.9429
2883.3;4.9558
2884.9;4.9621
2886.5;4.8616
2888.1;4.7683
2889.7;4.7458
2891.3;4.737
2892.9;4.7026
2894.6;4.6543
2896.2;4.5864
2897.8;4.5954
2899.4;4.6174
2901;4.6055
2902.7;4.6736
2904.3;4.7224
2905.9;4.688
2907.5;4.7219
2909.2;4.7573
2910.8;4.7864
2912.4;4.8472
2914.1;4.8674
2915.7;4.8481
2917.4;4.8711
2919;4.9448
2920.7;5.0181
2922.3;5.021
2923.9;4.9717
2925.6;4.9861
2927.2;5.0166
2928.9;5.0171
2930.6;4.9927
2932.2;4.9678
2933.9;5.0066
2935.5;5.0559
2937.2;5.0491
2938.9;5.0185
2940.5;5.064
2942.2;5.0515
2943.9;5.0171
2945.5;5.0371
2947.2;5.0735
2948.9;5.0481
2950.6;4.999
2952.3;4.9773
2953.9;4.9856
2955.6;4.9985
2957.3;4.9927
2959;4.9941
2960.7;5.009
2962.4;4.988
2964.1;5.0132
2965.8;5.0754
2967.5;5.0837
2969.2;5.0837
2970.9;5.1228
2972.6;5.154
2974.3;5.1526
2976;5.165
2977.7;5.1831
2979.4;5.2388
2981.1;5.2524
2982.8;5.2148
2984.5;5.2114
2986.3;5.2473
2988;5.2768
2989.7;5.2993
2991.4;5.321
2993.2;5.333
2994.9;5.355
2996.6;5.3721
2998.4;5.3526
3000.1;5.3606
3001.8;5.3635
3003.6;5.3679
3005.3;5.3721
3007;5.3889
3008.8;5.4272
3010.5;5.4194
3012.3;5.4314
3014;5.4521
3015.8;5.4536
3017.6;5.4736
3019.3;5.5056
3021.1;5.4736
3022.8;5.4731
3024.6;5.5027
3026.4;5.51
3028.1;5.5119
3029.9;5.4617
3031.7;5.4761
3033.4;5.5683
3035.2;5.5535
3037;5.501
3038.8;5.5588
3040.6;5.6123
3042.3;5.5879
3044.1;5.5774
3045.9;5.5957
3047.7;5.6211
3049.5;5.6362
3051.3;5.6431
3053.1;5.6435
3054.9;5.6597
3056.7;5.6362
3058.5;5.6455
3060.3;5.6665
3062.1;5.6689
3063.9;5.7065
3065.7;5.7173
3067.5;5.7248
3069.4;5.7507
3071.2;5.7632
3073;5.7522
3074.8;5.7678
3076.6;5.7827
3078.5;5.7822
3080.3;5.7971
3082.1;5.7803
3084;5.7961
3085.8;5.8459
3087.6;5.8664
3089.5;5.8396
3091.3;5.8545
3093.2;5.8818
3095;5.9282
3096.9;5.9197
3098.7;5.8943
3100.6;5.9397
3102.4;5.9895
3104.3;5.9626
3106.1;5.9692
3108;5.9785
3109.9;6.029
3111.7;6.0603
3113.6;6.0224
3115.5;6.0295
3117.4;6.0842
3119.2;6.0923
3121.1;6.0642
3123;6.124
3124.9;6.1889
3126.8;6.2095
3128.6;6.2243
3130.5;6.2234
3132.4;6.2607
3134.3;6.2905
3136.2;6.2776
3138.1;6.2785
3140;6.365
3141.9;6.3804
3143.8;6.3699
3145.7;6.3996
3147.6;6.456
3149.5;6.498
3151.5;6.5224
3153.4;6.5293
3155.3;6.5552
3157.2;6.5803
3159.1;6.6124
3161.1;6.6321
3163;6.6474
3164.9;6.6774
3166.9;6.7197
3168.8;6.758
3170.7;6.8005
3172.7;6.8254
3174.6;6.8542
3176.6;6.8891
3178.5;6.9033
3180.5;6.9416
3182.4;6.9795
3184.4;6.99
3186.3;6.9958
3188.3;7.0339
3190.2;7.0875
3192.2;7.1035
3194.2;7.1186
3196.1;7.1733
3198.1;7.2446
3200.1;7.2627
3202.1;7.2656
3204;7.2849
3206;7.3379
3208;7.3699
3210;7.3699
3212;7.4092
3214;7.5034
3216;7.5112
3218;7.5373
3220;7.5959
3222;7.6189
3224;7.6628
3226;7.6799
3228;7.6733
3230;7.6911
3232;7.7446
3234;7.8044
3236.1;7.8533
3238.1;7.8637
3240.1;7.8877
3242.1;7.9634
3244.2;7.9634
3246.2;7.967
3248.2;8.0442
3250.3;8.1045
3252.3;8.1333
3254.3;8.1916
3256.4;8.2451
3258.4;8.2634
3260.5;8.2868
3262.5;8.3083
3264.6;8.3327
3266.6;8.3916
3268.7;8.4419
3270.8;8.4814
3272.8;8.5442
3274.9;8.5915
3277;8.602
3279;8.7046
3281.1;8.7265
3283.2;8.7131
3285.3;8.7917
3287.4;8.8352
3289.4;8.8869
3291.5;8.9624
3293.6;9.0071
3295.7;8.9983
3297.8;9.0195
3299.9;9.0788
3302;9.1548
3304.1;9.2141
3306.2;9.2285
3308.3;9.25
3310.4;9.2744
3312.6;9.3188
3314.7;9.3945
3316.8;9.4309
3318.9;9.4343
3321;9.4721
3323.2;9.5227
3325.3;9.5698
3327.4;9.6008
3329.6;9.6184
3331.7;9.6567
3333.9;9.6902
3336;9.7109
3338.2;9.7558
3340.3;9.7812
3342.5;9.7864
3344.6;9.8098
3346.8;9.8291
3348.9;9.8425
3351.1;9.851
3353.3;9.8366
3355.4;9.8486
3357.6;9.8575
3359.8;9.8575
3362;9.8755
3364.1;9.875
3366.3;9.8969
3368.5;9.8689
3370.7;9.8301
3372.9;9.8375
3375.1;9.8789
3377.3;9.8716
3379.5;9.8415
3381.7;9.8769
3383.9;9.9348
3386.1;9.9079
3388.3;9.9199
3390.6;9.9812
3392.8;9.9438
3395;9.8535
3397.2;9.853
3399.4;9.8564
3401.7;9.8381
3403.9;9.8445
3406.1;9.8305
3408.4;9.7988
3410.6;9.7644
3412.9;9.7363
3415.1;9.7414
3417.4;9.7593
3419.6;9.7734
3421.9;9.8266
3424.1;9.9114
3426.4;9.9831
3428.7;10.0984
3430.9;10.3252
3433.2;10.5473
3435.5;10.6938
3437.8;10.81
3440;10.9123
3442.3;11.0444
3444.6;11.1609
3446.9;11.2312
3449.2;11.3164
3451.5;11.4206
3453.8;11.478
3456.1;11.5569
3458.4;11.6516
3460.7;11.7378
3463;11.7815
3465.3;11.8335
3467.7;11.8957
3470;11.9411
3472.3;11.9958
3474.6;12.0373
3477;12.0766
3479.3;12.1196
3481.6;12.1135
3484;12.1445
3486.3;12.1882
3488.7;12.1809
3491;12.2153
3493.4;12.1909
3495.7;12.1196
3498.1;12.0827
3500.4;12.0891
3502.8;12.0608
3505.2;12.0681
3507.5;12.1494
3509.9;12.3393
3512.3;12.5666
3514.7;12.8437
3517.1;13.06
3519.5;13.2055
3521.8;13.3715
3524.2;13.5161
3526.6;13.6013
3529;13.6992
3531.4;13.7568
3533.8;13.8896
3536.3;13.9951
3538.7;14.0061
3541.1;14.0824
3543.5;14.1677
3545.9;14.2324
3548.4;14.2937
3550.8;14.3789
3553.2;14.4409
3555.7;14.4702
3558.1;14.5166
3560.5;14.5844
3563;14.6667
3565.4;14.7019
3567.9;14.7304
3570.4;14.7873
3572.8;14.875
3575.3;14.9658
3577.7;14.9946
3580.2;14.9985
3582.7;15.0405
3585.2;15.1132
3587.6;15.1721
3590.1;15.2224
3592.6;15.2922
3595.1;15.3491
3597.6;15.4079
3600.1;15.4411
3602.6;15.4885
3605.1;15.5559
3607.6;15.5847
3610.1;15.632
3612.7;15.6814
3615.2;15.7981
3617.7;15.8837
3620.2;15.8779
3622.7;15.9082
3625.3;15.9685
3627.8;16.0109
3630.4;16.0656
3632.9;16.1424
3635.5;16.2038
3638;16.2407
3640.6;16.2975
3643.1;16.3513
3645.7;16.3972
3648.2;16.4272
3650.8;16.445
3653.4;16.4631
3656;16.5244
3658.5;16.5866
3661.1;16.6001
3663.7;16.5896
3666.3;16.6301
3668.9;16.7097
3671.5;16.7727
3674.1;16.7478
3676.7;16.7307
3679.3;16.7641
3681.9;16.7695
3684.5;16.781
3687.2;16.7841
3689.8;16.7836
3692.4;16.8259
3695;16.8364
3697.7;16.822
3700.3;16.8188
3703;16.8278
3705.6;16.799
3708.3;16.758
3710.9;16.7661
3713.6;16.7939
3716.2;16.7956
3718.9;16.7607
3721.6;16.788
3724.2;16.8469
3726.9;16.8493
3729.6;16.8493
3732.3;16.8689
3735;16.8957
3737.7;16.9331
3740.4;16.9943
3743.1;17.0388
3745.8;17.0861
3748.5;17.1408
3751.2;17.2011
3753.9;17.269
3756.6;17.3144
3759.4;17.3675
3762.1;17.4211
3764.8;17.479
3767.6;17.5417
3770.3;17.5585
3773;17.6335
3775.8;17.7399
3778.5;17.7863
3781.3;17.8313
3784.1;17.8896
3786.8;17.9404
3789.6;18.0102
3792.4;18.0537
3795.1;18.0775
3797.9;18.1442
3800.7;18.1925
3803.5;18.1833
3806.3;18.1872
3809.1;18.2321
3811.9;18.2609
3814.7;18.2404
3817.5;18.2663
3820.3;18.2849
3823.1;18.3117
3825.9;18.372
3828.8;18.3986
3831.6;18.361
3834.4;18.3054
3837.3;18.2385
3840.1;18.2474
3843;18.2883
3845.8;18.3059
3848.7;18.3342
3851.5;18.3872
3854.4;18.4225
3857.3;18.4687
3860.1;18.4519
3863;18.4255
3865.9;18.5007
3868.8;18.5849
3871.7;18.6342
3874.6;18.6721
3877.5;18.7094
3880.4;18.7573
3883.3;18.8022
3886.2;18.8437
3889.1;18.8786
3892;18.9494
3894.9;19.0075
3897.9;19.0461
3900.8;19.0778
3903.7;19.1467
3906.7;19.2104
3909.6;19.2194
3912.6;19.2109
3915.5;19.2185
3918.5;19.2587
3921.4;19.2958
3924.4;19.3203
3927.4;19.2988
3930.4;19.2778
3933.3;19.3088
3936.3;19.3232
3939.3;19.2744
3942.3;19.2319
3945.3;19.1965
3948.3;19.1825
3951.3;19.1596
3954.4;19.0913
3957.4;19.0534
3960.4;19.0544
3963.4;19.029
3966.5;18.9836
3969.5;18.9877
3972.5;18.9792
3975.6;18.9016
3978.6;18.8332
3981.7;18.8212
3984.7;18.7954
3987.8;18.7714
3990.9;18.7939
3994;18.8156
3997;18.8122
4000.1;18.7939
4003.2;18.7729
4006.3;18.7792
4009.4;18.7812
4012.5;18.7749
4015.6;18.7749
4018.7;18.8303
4021.8;18.8974
4025;18.9343
4028.1;18.9223
4031.2;18.9428
4034.4;19.0161
4037.5;19.0566
4040.6;19.0686
4043.8;19.0954
4047;19.1018
4050.1;19.1237
4053.3;19.1342
4056.5;19.1281
4059.6;19.1481
4062.8;19.2089
4066;19.2104
4069.2;19.1552
4072.4;19.1486
4075.6;19.1811
4078.8;19.1467
4082;19.07
4085.2;19.028
4088.4;19.0002
4091.7;18.9519
4094.9;18.9113
4098.1;18.853
4101.4;18.7792
4104.6;18.706
4107.9;18.6528
4111.1;18.5534
4114.4;18.4787
4117.7;18.4384
4120.9;18.3886
4124.2;18.3361
4127.5;18.2705
4130.8;18.195
4134.1;18.1333
4137.4;18.0805
4140.7;18.0475
4144;18.0141
4147.3;17.9499
4150.6;17.8901
4154;17.8481
4157.3;17.8064
4160.6;17.7863
4164;17.746
4167.3;17.6828
4170.7;17.625
4174;17.5422
4177.4;17.4628
4180.8;17.4062
4184.1;17.3273
4187.5;17.2595
4190.9;17.2143
4194.3;17.1662
4197.7;17.0935
4201.1;17.0756
4204.5;17.1075
4207.9;17.0875
4211.3;16.989
4214.8;16.926
4218.2;16.8881
4221.6;16.8374
4225.1;16.7956
4228.5;16.7043
4232;16.6091
4235.4;16.6145
4238.9;16.6569
4242.4;16.7119
4245.8;16.7631
4249.3;16.8459
4252.8;16.8982
4256.3;16.8737
4259.8;16.7421
4263.3;16.5383
4266.8;16.3823
4270.3;16.2822
4273.8;16.1569
4277.4;16.0783
4280.9;16.0527
4284.4;16.0344
4288;16.0278
4291.5;16.0434
4295.1;16.1157
4298.6;16.1948
4302.2;16.279
4305.8;16.3784
4309.4;16.455
4312.9;16.5681
4316.5;16.6914
4320.1;16.7425
4323.7;16.7482
4327.3;16.7497
4331;16.7221
4334.6;16.6809
4338.2;16.603
4341.8;16.5039
4345.5;16.3852
4349.1;16.2451
4352.8;16.0712
4356.4;15.8803
4360.1;15.6482
4363.8;15.4157
4367.4;15.1567
4371.1;14.9084
4374.8;14.6333
4378.5;14.3549
4382.2;14.0749
4385.9;13.7902
4389.6;13.5174
4393.4;13.2614
4397.1;12.968
4400.8;12.7182
4404.5;12.5053
4408.3;12.312
4412;12.1245
4415.8;11.9441
4419.6;11.7497
4423.3;11.5652
4427.1;11.3828
4430.9;11.2182
4434.7;11.0803
4438.5;10.9836
4442.3;10.8879
4446.1;10.7448
4449.9;10.5483
4453.7;10.3291
4457.6;10.1352
4461.4;10.0095
4465.2;9.9138
4469.1;9.8769
4473;9.9497
4476.8;10.0524
4480.7;10.1242
4484.6;10.2158
4488.4;10.3449
4492.3;10.5066
4496.2;10.7383
4500.1;10.9875
4504;11.3254
4508;11.7551
4511.9;12.2158
4515.8;12.6709
4519.7;13.1369
4523.7;13.5805
4527.6;14.0002
4531.6;14.3664
4535.6;14.7133
4539.5;15.0654
4543.5;15.3984
4547.5;15.6699
4551.5;15.8608
4555.5;16.0249
4559.5;16.1833
4563.5;16.2866
4567.5;16.3674
4571.6;16.4111
4575.6;16.3889
4579.6;16.3747
4583.7;16.3679
4587.7;16.3398
4591.8;16.301
4595.9;16.2338
4600;16.113
4604;16.0095
4608.1;15.9248
4612.2;15.8125
4616.3;15.6196
4620.5;15.4008
4624.6;15.198
4628.7;14.9812
4632.8;14.717
4637;14.4174
4641.1;14.1032
4645.3;13.7705
4649.5;13.438
4653.6;13.1289
4657.8;12.7983
4662;12.4255
4666.2;12.0627
4670.4;11.7197
4674.6;11.4182
4678.8;11.2358
4683.1;11.2068
4687.3;11.3274
4691.5;11.5598
4695.8;11.9162
4700;12.2705
4704.3;12.5378
4708.6;12.7561
4712.9;12.935
4717.2;13.0652
4721.5;13.1284
4725.8;13.1433
4730.1;13.1115
4734.4;13.0671
4738.7;13.0127
4743.1;12.9325
4747.4;12.8173
4751.7;12.6911
4756.1;12.5901
4760.5;12.4504
4764.8;12.2885
4769.2;12.1665
4773.6;12.0344
4778;11.8684
4782.4;11.6967
4786.8;11.5063
4791.3;11.3403
4795.7;11.1525
4800.1;10.9397
4804.6;10.7646
4809;10.5884
4813.5;10.3684
4818;10.1472
4822.5;9.9277
4827;9.6965
4831.5;9.4634
4836;9.1946
4840.5;8.936
4845;8.6767
4849.5;8.3747
4854.1;8.0527
4858.6;7.7517
4863.2;7.4431
4867.8;7.0967
4872.3;6.7173
4876.9;6.3259
4881.5;5.9277
4886.1;5.5434
4890.7;5.1555
4895.3;4.7869
4900;4.4624
4904.6;4.1677
4909.2;3.9485
4913.9;3.7969
4918.6;3.6648
4923.2;3.5203
4927.9;3.4451
4932.6;3.4065
4937.3;3.3618
4942;3.3208
4946.7;3.28
4951.4;3.2197
4956.2;3.1658
4960.9;3.1394
4965.7;3.0891
4970.4;3.0217
4975.2;2.9939
4980;2.9714
4984.8;2.9424
4989.6;2.9326
4994.4;2.9216
4999.2;2.8877
5004;2.8767
5008.8;2.8743
5013.7;2.8747
5018.5;2.8647
5023.4;2.8691
5028.3;2.8706
5033.2;2.8577
5038;2.8428
5043;2.8447
5047.9;2.8577
5052.8;2.8518
5057.7;2.8274
5062.7;2.8249
5067.6;2.8342
5072.6;2.8467
5077.5;2.8289
5082.5;2.8318
5087.5;2.8508
5092.5;2.8428
5097.5;2.8328
5102.5;2.8586
5107.5;2.8767
5112.6;2.8638
5117.6;2.8484
5122.7;2.8457
5127.7;2.8628
5132.8;2.8594
5137.9;2.8149
5143;2.781
5148.1;2.79
5153.2;2.8174
5158.4;2.8303
5163.5;2.8264
5168.6;2.8039
5173.8;2.7954
5179;2.8005
5184.2;2.8169
5189.3;2.8279
5194.5;2.8064
5199.8;2.7761
5205;2.7402
5210.2;2.7039
5215.4;2.6787
5220.7;2.6379
5226;2.5771
5231.2;2.5308
5236.5;2.4805
5241.8;2.449
5247.1;2.4495
5252.4;2.4226
5257.8;2.3813
5263.1;2.3484
5268.4;2.321
5273.8;2.293
5279.2;2.2935
5284.6;2.282
5290;2.2302
5295.4;2.2143
5300.8;2.2163
5306.2;2.2163
5311.6;2.2217
5317.1;2.2183
5322.5;2.1997
5328;2.1904
5333.5;2.1914
5339;2.1763
5344.5;2.1421
5350;2.1431
5355.5;2.1748
5361.1;2.1848
5366.6;2.2039
5372.2;2.2217
5377.8;2.2302
5383.3;2.2456
5388.9;2.2681
5394.5;2.3005
5400.2;2.3245
5405.8;2.3418
5411.4;2.3579
5417.1;2.3564
5422.8;2.3708
5428.4;2.4341
5434.1;2.4734
5439.8;2.4758
5445.5;2.4849
5451.3;2.4934
5457;2.46
5462.8;2.4092
5468.5;2.4172
5474.3;2.4106
5480.1;2.3752
5485.9;2.3528
5491.7;2.3159
5497.5;2.2976
5503.3;2.2986
5509.2;2.2656
5515.1;2.2212
5520.9;2.1843
5526.8;2.1814
5532.7;2.168
5538.6;2.1101
5544.5;2.0666
5550.5;2.0513
5556.4;2.0464
5562.4;2.0293
5568.4;2.0059
5574.4;1.988
5580.4;1.9651
5586.4;1.9805
5592.4;1.979
5598.4;1.97
5604.5;1.9585
5610.6;1.9321
5616.6;1.9126
5622.7;1.9268
5628.8;1.9311
5634.9;1.9182
5641.1;1.9126
5647.2;1.9502
5653.4;1.9934
5659.6;2.0224
5665.7;2.0469
5671.9;2.0857
5678.2;2.1355
5684.4;2.1531
5690.6;2.1518
5696.9;2.1704
5703.1;2.1643
5709.4;2.1399
5715.7;2.1289
5722;2.0977
5728.3;2.0618
5734.7;2.0422
5741;1.9819
5747.4;1.9287
5753.8;1.9351
5760.2;1.9006
5766.6;1.8159
5773;1.8005
5779.4;1.7952
5785.9;1.7717
5792.3;1.7598
5798.8;1.7456
5805.3;1.7014
5811.8;1.6631
5818.4;1.6121
5824.9;1.5684
5831.4;1.5435
5838;1.5398
5844.6;1.5408
5851.2;1.5224
5857.8;1.4861
5864.4;1.4451
5871.1;1.4351
5877.7;1.3752
5884.4;1.3315
5891.1;1.3296
5897.8;1.323
5904.5;1.3359
5911.2;1.3401
5918;1.3384
5924.7;1.3401
5931.5;1.3052
5938.3;1.2483
5945.1;1.2707
5952;1.2866
5958.8;1.2627
5965.7;1.2148
5972.5;1.2344
5979.4;1.2551
5986.3;1.22
5993.2;1.2178
6000.2;1.2488
6007.1;1.2573
6014.1;1.2537
6021.1;1.2417
6028.1;1.2292
6035.1;1.2095
6042.1;1.1602
6049.2;1.134
6056.3;1.2034
6063.3;1.2205
6070.4;1.186
6077.6;1.1721
6084.7;1.1958
6091.8;1.2263
6099;1.2058
6106.2;1.1574
6113.4;1.136
6120.6;1.1645
6127.8;1.1976
6135.1;1.178
6142.4;1.1545
6149.6;1.157
6157;1.1482
6164.3;1.1382
6171.6;1.1465
6179;1.1167
6186.3;1.0991
6193.7;1.1226
6201.1;1.1248
6208.6;1.1301
6216;1.1355
6223.5;1.1182
6231;1.1211
6238.5;1.1216
6246;1.1182
6253.5;1.1611
6261.1;1.1794
6268.6;1.177
6276.2;1.1736
6283.8;1.1804
6291.4;1.1774
6299.1;1.188
6306.8;1.1924
6314.4;1.197
6322.1;1.1824
6329.9;1.1948
6337.6;1.2085
6345.4;1.1855
6353.1;1.2053
6360.9;1.2302
6368.7;1.2197
6376.6;1.2388
6384.4;1.2488
6392.3;1.2637
6400.2;1.2666
6408.1;1.2129
6416;1.197
6424;1.2378
6432;1.2563
6439.9;1.2817
6448;1.2866
6456;1.2603
6464;1.2666
6472.1;1.2353
6480.2;1.2168
6488.3;1.1814
6496.4;1.1636
6504.6;1.1799
6512.8;1.1914
6520.9;1.1726
6529.2;1.1676
6537.4;1.1565
6545.6;1.1602
6553.9;1.144
6562.2;1.1133
6570.5;1.1106
6578.9;1.123
6587.2;1.134
6595.6;1.1641
6604;1.1876
6612.4;1.1785
6620.9;1.1536
6629.4;1.1096
6637.8;1.0889
6646.4;1.1221
6654.9;1.124
6663.4;1.1367
6672;1.1082
6680.6;1.0774
6689.2;1.0793
6697.9;1.0928
6706.5;1.0852
6715.2;1.0713
6723.9;1.0498
6732.7;1.0305
6741.4;1.0588
6750.2;1.0503
6759;1.0149
6767.8;1.0359
6776.7;1.0339
6785.5;0.9985
6794.4;0.9836
6803.4;0.9707
6812.3;0.9812
6821.3;0.9636
6830.2;1.0015
6839.3;1.0283
6848.3;0.978
6857.3;0.9421
6866.4;0.9373
6875.5;0.9785
6884.7;0.9841
6893.8;0.9687
6903;0.977
6912.2;0.9746
6921.4;0.9492
6930.7;0.9551
6940;0.9687
6949.3;0.9573
6958.6;0.9431
6967.9;0.9546
6977.3;0.9573
6986.7;0.9329
6996.2;0.9302
7005.6;0.9282
7015.1;0.9233
7024.6;0.9182
7034.1;0.9207
7043.7;0.9067
7053.3;0.8874
7062.9;0.9148
7072.5;0.9187
7082.2;0.8948
7091.9;0.9053
7101.6;0.9053
7111.3;0.8953
7121.1;0.9412
7130.9;0.9526
7140.7;0.8848
7150.6;0.8669
7160.4;0.8823
7170.3;0.8469
7180.3;0.8589
7190.2;0.8535
7200.2;0.8257
7210.2;0.866
7220.3;0.9248
7230.3;0.8774
7240.4;0.8296
7250.6;0.8376
7260.7;0.842
7270.9;0.8474
7281.1;0.8779
7291.4;0.8799
7301.6;0.8569
7311.9;0.8635
7322.3;0.8735
7332.6;0.8669
7343;0.8621
7353.4;0.876
7363.9;0.9033
7374.3;0.8923
7384.8;0.9087
7395.4;0.9326
7405.9;0.9458
7416.5;0.9536
7427.2;0.9707
7437.8;0.9936
7448.5;1.0061
7459.2;1.0234
7470;1.0405
7480.7;1.0478
7491.6;1.0469
7502.4;1.0784
7513.3;1.1301
7524.2;1.1606
7535.1;1.1924
7546.1;1.198
7557.1;1.2334
7568.1;1.2798
7579.2;1.3052
7590.3;1.355
7601.4;1.4087
7612.6;1.4292
7623.8;1.4785
7635;1.5598
7646.2;1.6172
7657.5;1.6874
7668.9;1.7895
7680.2;1.8608
7691.6;1.969
7703.1;2.0691
7714.5;2.1201
7726;2.1894
7737.5;2.3
7749.1;2.4321
7760.7;2.5373
7772.3;2.6255
7784;2.738
7795.7;2.8254
7807.5;2.9331
7819.2;3.0471
7831;3.2192
7842.9;3.418
7854.8;3.6467
7866.7;3.9228
7878.6;4.2021
7890.6;4.4878
7902.7;4.842
7914.7;5.2493
7926.8;5.6565
7939;6.1301
7951.2;6.6391
7963.4;7.1833
7975.6;7.7117
7987.9;8.2063
8000.2;8.6887
8012.6;9.24
8025;9.8352
8037.4;10.4665
8049.9;11.136
8062.4;11.8344
8075;12.6035
8087.6;13.4099
8100.2;14.2605
8112.9;15.153
8125.6;16.0066
8138.4;16.8775
8151.2;17.7031
8164;18.3261
8176.9;18.747
8189.8;18.9825
8202.8;19.1083
8215.8;19.1696
8228.8;19.0922
8241.9;18.8801
8255;18.6711
8268.2;18.5051
8281.4;18.2968
8294.6;18.0092
8307.9;17.7666
8321.3;17.5637
8334.7;17.3283
8348.1;17.0861
8361.5;16.9216
8375;16.7507
8388.6;16.5966
8402.2;16.4492
8415.8;16.32
8429.5;16.2587
8443.2;16.125
8457;15.9895
8470.8;15.8574
8484.7;15.7314
8498.6;15.6037
8512.6;15.4243
8526.6;15.2329
8540.6;14.9482
8554.7;14.549
8568.8;14.0217
8583;13.2441
8597.3;12.1809
8611.6;11.0652
8625.9;10.498
8640.3;10.9182
8654.7;11.948
8669.2;12.948
8683.7;13.602
8698.2;13.9729
8712.9;14.2339
8727.5;14.4309
8742.2;14.5439
8757;14.5984
8771.8;14.6477
8786.7;14.7395
8801.6;14.8693
8816.6;15.0031
8831.6;15.0962
8846.7;15.1242
8861.8;15.1237
8877;15.1275
8892.2;15.1367
8907.5;15.0608
8922.8;14.9836
8938.2;14.9406
8953.6;14.8444
8969.1;14.7285
8984.7;14.698
9000.3;14.75
9015.9;14.8569
9031.6;14.8923
9047.4;14.9094
9063.2;14.9553
9079.1;14.9482
9095;14.9194
9111;14.9582
9127;15.0363
9143.1;15.0713
9159.3;15.0739
9175.5;15.1137
9191.8;15.073
9208.1;15.031
9224.5;15.0124
9240.9;14.9773
9257.4;14.9716
9274;14.9443
9290.6;14.8051
9307.3;14.54
9324;14.1801
9340.8;13.6757
9357.7;12.9934
9374.6;12.2028
9391.6;11.4216
9408.6;10.6377
9425.7;9.875
9442.9;9.2954
9460.1;8.8567
9477.4;8.4719
9494.8;8.1428
9512.2;7.8586
9529.7;7.6264
9547.2;7.4574
9564.9;7.2527
9582.5;7.0078
9600.3;6.8923
9618.1;6.7685
9636;6.6291
9653.9;6.5115
9671.9;6.3503
9690;6.2512
9708.2;6.1484
9726.4;6.0144
9744.7;5.9092
9763;5.7698
9781.4;5.6477
9799.9;5.5827
9818.5;5.4717
9837.1;5.3989
9855.8;5.362
9874.6;5.2966
9893.4;5.2429
9912.3;5.1841
9931.3;5.1426
9950.4;5.0818
9969.5;5.0229
9988.7;4.9726
10008;4.8242
10027.4;4.7151
10046.8;4.7041
10066.3;4.6716
10085.9;4.6152
10105.6;4.5815
10125.3;4.5654
10145.1;4.4846
10165;4.3787
10185;4.3428
10205;4.3486
10225.1;4.3188
10245.4;4.2998
10265.6;4.2744
10286;4.2241
10306.5;4.198
10327;4.1577
10347.6;4.0989
10368.3;4.0994
10389.1;4.0845
10409.9;4.052
10430.9;3.9831
10451.9;3.925
10473;3.894
10494.2;3.8935
10515.5;3.8672
10536.9;3.8403
10558.4;3.8088
10579.9;3.7773
10601.5;3.7331
10623.3;3.7102
10645.1;3.6807
10667;3.6728
10689;3.6472
10711.1;3.5959
10733.2;3.5452
10755.5;3.5107
10777.9;3.4763
10800.3;3.4714
10822.9;3.4568
10845.5;3.4204
10868.2;3.4031
10891.1;3.408
10914;3.3293
10937;3.2834
10960.2;3.271
10983.4;3.3113
11006.7;3.3264
11030.1;3.2959
11053.6;3.2781
11077.3;3.27
11101;3.2446
11124.8;3.2212
11148.7;3.2041
11172.7;3.1843
11196.9;3.1682
11221.1;3.1204
11245.5;3.0981
11269.9;3.0642
11294.4;3.0261
11319.1;3.0132
11343.9;2.9748
11368.8;2.9436
11393.7;2.9436
11418.8;2.915
11444;2.8872
11469.4;2.8608
11494.8;2.8103
11520.3;2.7815
11546;2.7266
11571.8;2.658
11597.7;2.6389
11623.7;2.6658
11649.8;2.6077
11676;2.5273
11702.4;2.4963
11728.9;2.4436
11755.5;2.3843
11782.2;2.3433
11809;2.2876
11836;2.2241
11863.1;2.2073
11890.3;2.1753
11917.6;2.0781
11945;2.0063
11972.6;1.9177
12000.3;1.8269
12028.2;1.7681
12056.2;1.7034
12084.3;1.6182
12112.5;1.5354
12140.9;1.4416
12169.4;1.3613
12198;1.2632
12226.8;1.1406
12255.7;1.0688
12284.7;1.0549
12313.9;1.0981
12343.2;1.4009
12372.7;2.0603
12402.3;2.9538
12432;3.6738
12461.9;4.1199
12491.9;4.3296
12522.1;4.3645
12552.4;4.206
12582.9;3.918
12613.5;3.6643
12644.3;3.6108
12675.2;3.8562
12706.3;4.3303
12737.5;4.8415
12768.8;5.1645
12800.4;5.2898
12832.1;5.2663
12863.9;5.0395
12895.9;4.7131
12928.1;4.3552
12960.4;4.0908
12992.9;3.9076
13025.5;3.7451
13058.3;3.6118
13091.3;3.564
13124.4;3.5168
13157.7;3.4121
13191.2;3.29
13224.9;3.2374
13258.7;3.2002
13292.7;3.1443
13326.9;3.0471
13361.2;3.0361
13395.7;3.0022
13430.4;2.9241
13465.3;2.8777
13500.4;2.8921
13535.6;2.8428
13571.1;2.783
13606.7;2.7153
13642.5;2.7371
13678.5;2.7651
13714.7;2.7351
13751.1;2.6992
13787.6;2.647
13824.4;2.6016
13861.4;2.5437
13898.5;2.491
13935.9;2.459
13973.4;2.3728
14011.2;2.3713
